File: S0_Raman_center_2700.txt
2204.67	1655
2208.68	1607
2212.7	1603
2216.71	1613
2220.72	1579
2224.73	1596
2228.74	1590
2232.74	1608
2236.74	1627
2240.74	1571
2244.74	1540
2248.74	1572
2252.73	1590
2256.72	1577
2260.71	1621
2264.7	1560
2268.68	1597
2272.66	1579
2276.64	1589
2280.62	1568
2284.6	1561
2288.57	1586
2292.54	1543
2296.51	1552
2300.48	1612
2304.44	1539
2308.41	1537
2312.37	1567
2316.32	1552
2320.28	1598
2324.24	1578
2328.19	1578
2332.14	1573
2336.08	1570
2340.03	1561
2343.97	1544
2347.92	1546
2351.85	1528
2355.79	1558
2359.73	1559
2363.66	1567
2367.59	1576
2371.52	1598
2375.44	1557
2379.37	1525
2383.29	1538
2387.21	1555
2391.13	1563
2395.04	1530
2398.96	1532
2402.87	1541
2406.78	1538
2410.69	1546
2414.59	1514
2418.49	1534
2422.39	1523
2426.29	1537
2430.19	1544
2434.08	1539
2437.98	1545
2441.87	1533
2445.76	1493
2449.64	1550
2453.53	1549
2457.41	1567
2461.29	1560
2465.16	1549
2469.04	1526
2472.91	1567
2476.79	1573
2480.65	1533
2484.52	1549
2488.39	1570
2492.25	1549
2496.11	1538
2499.97	1516
2503.83	1515
2507.68	1533
2511.54	1541
2515.39	1528
2519.23	1512
2523.08	1551
2526.93	1517
2530.77	1539
2534.61	1539
2538.45	1521
2542.28	1542
2546.12	1530
2549.95	1519
2553.78	1526
2557.61	1543
2561.43	1530
2565.26	1555
2569.08	1540
2572.9	1531
2576.72	1522
2580.53	1526
2584.35	1512
2588.16	1539
2591.97	1524
2595.77	1520
2599.58	1500
2603.38	1515
2607.18	1519
2610.98	1497
2614.78	1539
2618.58	1513
2622.37	1559
2626.16	1559
2629.95	1542
2633.74	1534
2637.52	1535
2641.31	1540
2645.09	1553
2648.87	1545
2652.64	1530
2656.42	1554
2660.19	1537
2663.96	1526
2667.73	1544
2671.5	1595
2675.26	1595
2679.03	1559
2682.79	1569
2686.55	1543
2690.31	1563
2694.06	1572
2697.81	1540
2701.56	1573
2705.31	1628
2709.06	1601
2712.81	1635
2716.55	1618
2720.29	1632
2724.03	1646
2727.77	1689
2731.5	1675
2735.24	1641
2738.97	1655
2742.7	1689
2746.42	1651
2750.15	1659
2753.87	1678
2757.59	1613
2761.31	1597
2765.03	1615
2768.75	1597
2772.46	1579
2776.17	1676
2779.88	1583
2783.59	1569
2787.29	1553
2791	1574
2794.7	1501
2798.4	1546
2802.1	1515
2805.79	1511
2809.49	1560
2813.18	1510
2816.87	1496
2820.56	1522
2824.24	1524
2827.93	1513
2831.61	1523
2835.29	1530
2838.97	1515
2842.64	1524
2846.32	1502
2849.99	1519
2853.66	1548
2857.33	1518
2861	1511
2864.66	1503
2868.33	1529
2871.99	1524
2875.65	1530
2879.3	1507
2882.96	1548
2886.61	1517
2890.26	1521
2893.91	1512
2897.56	1513
2901.21	1523
2904.85	1511
2908.49	1535
2912.13	1516
2915.77	1551
2919.4	1531
2923.04	1542
2926.67	1532
2930.3	1515
2933.93	1536
2937.56	1516
2941.18	1488
2944.8	1512
2948.42	1505
2952.04	1503
2955.66	1477
2959.28	1518
2962.89	1520
2966.5	1522
2970.11	1522
2973.72	1497
2977.32	1494
2980.93	1495
2984.53	1500
2988.13	1528
2991.73	1528
2995.32	1484
2998.92	1510
3002.51	1505
3006.1	1487
3009.69	1495
3013.28	1508
3016.86	1502
3020.45	1495
3024.03	1515
3027.61	1508
3031.19	1500
3034.76	1486
3038.34	1501
3041.91	1539
3045.48	1500
3049.05	1494
3052.61	1503
3056.18	1530
3059.74	1486
3063.3	1534
3066.86	1530
3070.42	1512
3073.97	1513
3077.53	1462
3081.08	1494
3084.63	1495
3088.18	1482
3091.72	1496
3095.27	1521
3098.81	1503
3102.35	1508
3105.89	1488
3109.43	1502
3112.96	1549
3116.5	1488
3120.03	1511
3123.56	1515
3127.08	1491
3130.61	1519
3134.14	1511
3137.66	1495
3141.18	1501
3144.7	1493
3148.21	1465
3151.73	1507
3155.24	1496
3158.75	1489
3162.26	1480
3164.9	1498