File: S1_Raman_center_2700.txt
2204.67	1644
2208.68	1607
2212.7	1620
2216.71	1576
2220.72	1621
2224.73	1546
2228.74	1586
2232.74	1586
2236.74	1561
2240.74	1571
2244.74	1560
2248.74	1597
2252.73	1587
2256.72	1579
2260.71	1555
2264.7	1571
2268.68	1582
2272.66	1584
2276.64	1573
2280.62	1543
2284.6	1555
2288.57	1579
2292.54	1584
2296.51	1534
2300.48	1572
2304.44	1551
2308.41	1544
2312.37	1540
2316.32	1555
2320.28	1591
2324.24	1537
2328.19	1563
2332.14	1602
2336.08	1535
2340.03	1571
2343.97	1537
2347.92	1596
2351.85	1553
2355.79	1553
2359.73	1542
2363.66	1555
2367.59	1549
2371.52	1577
2375.44	1542
2379.37	1543
2383.29	1525
2387.21	1555
2391.13	1539
2395.04	1550
2398.96	1527
2402.87	1535
2406.78	1522
2410.69	1571
2414.59	1533
2418.49	1508
2422.39	1533
2426.29	1566
2430.19	1573
2434.08	1541
2437.98	1562
2441.87	1537
2445.76	1533
2449.64	1545
2453.53	1531
2457.41	1541
2461.29	1560
2465.16	1527
2469.04	1562
2472.91	1511
2476.79	1555
2480.65	1582
2484.52	1563
2488.39	1491
2492.25	1548
2496.11	1524
2499.97	1551
2503.83	1507
2507.68	1534
2511.54	1540
2515.39	1553
2519.23	1537
2523.08	1523
2526.93	1526
2530.77	1532
2534.61	1539
2538.45	1496
2542.28	1516
2546.12	1511
2549.95	1511
2553.78	1527
2557.61	1551
2561.43	1541
2565.26	1510
2569.08	1550
2572.9	1535
2576.72	1522
2580.53	1515
2584.35	1506
2588.16	1523
2591.97	1533
2595.77	1534
2599.58	1529
2603.38	1529
2607.18	1525
2610.98	1506
2614.78	1513
2618.58	1523
2622.37	1553
2626.16	1531
2629.95	1547
2633.74	1535
2637.52	1501
2641.31	1520
2645.09	1507
2648.87	1525
2652.64	1541
2656.42	1556
2660.19	1517
2663.96	1556
2667.73	1561
2671.5	1533
2675.26	1580
2679.03	1543
2682.79	1544
2686.55	1541
2690.31	1543
2694.06	1567
2697.81	1580
2701.56	1545
2705.31	1547
2709.06	1591
2712.81	1595
2716.55	1583
2720.29	1603
2724.03	1634
2727.77	1619
2731.5	1639
2735.24	1649
2738.97	1604
2742.7	1620
2746.42	1631
2750.15	1638
2753.87	1584
2757.59	1608
2761.31	1590
2765.03	1616
2768.75	1559
2772.46	1553
2776.17	1637
2779.88	1537
2783.59	1547
2787.29	1542
2791	1546
2794.7	1519
2798.4	1542
2802.1	1563
2805.79	1562
2809.49	1515
2813.18	1524
2816.87	1519
2820.56	1544
2824.24	1524
2827.93	1518
2831.61	1507
2835.29	1478
2838.97	1514
2842.64	1529
2846.32	1525
2849.99	1499
2853.66	1489
2857.33	1501
2861	1518
2864.66	1503
2868.33	1487
2871.99	1491
2875.65	1530
2879.3	1509
2882.96	1548
2886.61	1522
2890.26	1515
2893.91	1500
2897.56	1517
2901.21	1505
2904.85	1515
2908.49	1488
2912.13	1513
2915.77	1530
2919.4	1521
2923.04	1522
2926.67	1501
2930.3	1516
2933.93	1459
2937.56	1476
2941.18	1491
2944.8	1479
2948.42	1503
2952.04	1504
2955.66	1527
2959.28	1512
2962.89	1493
2966.5	1499
2970.11	1513
2973.72	1496
2977.32	1492
2980.93	1497
2984.53	1507
2988.13	1518
2991.73	1504
2995.32	1516
2998.92	1528
3002.51	1501
3006.1	1541
3009.69	1503
3013.28	1512
3016.86	1500
3020.45	1506
3024.03	1478
3027.61	1498
3031.19	1491
3034.76	1472
3038.34	1520
3041.91	1466
3045.48	1491
3049.05	1463
3052.61	1509
3056.18	1497
3059.74	1476
3063.3	1483
3066.86	1540
3070.42	1505
3073.97	1501
3077.53	1478
3081.08	1511
3084.63	1501
3088.18	1494
3091.72	1512
3095.27	1530
3098.81	1487
3102.35	1474
3105.89	1487
3109.43	1507
3112.96	1507
3116.5	1515
3120.03	1488
3123.56	1506
3127.08	1467
3130.61	1502
3134.14	1484
3137.66	1480
3141.18	1476
3144.7	1488
3148.21	1496
3151.73	1477
3155.24	1489
3158.75	1499
3162.26	1488
3164.9	1486